Time:            14:49:27
Temperature:     -55.0 C
Maximum current: 2.00 A
Number of steps: 19
Samples:         10
Measurements:    1
Delay:           1.0 s
Comment:         

First column : Current through magnets in A
Second column: Magnetic field in mT
Third column : Angle of rotation in ï¿½

-2.00    -25.65   -0.1621
-1.89    -24.29   -0.1565
-1.79    -22.57   -0.1405
-1.68    -20.92   -0.1584
-1.58    -19.04   -0.1408
-1.47    -17.35   -0.1407
-1.37    -15.70   -0.1195
-1.26    -14.24   -0.1206
-1.16    -12.49   -0.0945
-1.05    -10.87   -0.0888
-0.95     -9.25   -0.0938
-0.84     -7.82   -0.0779
-0.74     -6.39   -0.0668
-0.63     -4.67   -0.0496
-0.53     -3.47   -0.0423
-0.42     -1.88   -0.0418
-0.32     -0.55   -0.0229
-0.21      1.07   -0.0012
-0.11      2.27   0.0013
 0.00      3.47   0.0194
 0.11      4.67   0.0380
 0.21      5.83   0.0540
 0.32      6.71   0.0844
 0.42      7.78   0.0858
 0.53      8.72   0.1087
 0.63      9.98   0.1241
 0.74     11.18   0.1335
 0.84     12.25   0.1465
 0.95     13.58   0.1638
 1.05     14.65   0.1634
 1.16     15.82   0.1775
 1.26     17.05   0.1869
 1.37     18.45   0.1920
 1.47     19.58   0.2009
 1.58     20.72   0.2120
 1.68     21.92   0.2136
 1.79     23.18   0.2337
 1.89     24.38   0.2208
 2.00     25.71   0.2536
 1.89     24.19   0.2457
 1.79     22.66   0.2423
 1.68     21.14   0.2325
 1.58     19.39   0.2274
 1.47     17.44   0.2182
 1.37     15.79   0.2069
 1.26     14.20   0.2034
 1.16     12.55   0.1840
 1.05     11.02   0.1826
 0.95      9.40   0.1673
 0.84      7.91   0.1439
 0.74      6.52   0.1528
 0.63      4.93   0.1342
 0.53      3.56   0.1260
 0.42      2.23   0.1089
 0.32      0.71   0.0963
 0.21     -0.68   0.0794
 0.11     -1.98   0.0738
 0.00     -3.18   0.0390
-0.11     -4.25   0.0368
-0.21     -5.39   0.0164
-0.32     -6.29   -0.0028
-0.42     -7.36   -0.0179
-0.53     -8.43   -0.0433
-0.63     -9.44   -0.0732
-0.74    -10.57   -0.0665
-0.84    -11.81   -0.0874
-0.95    -13.04   -0.0918
-1.05    -14.14   -0.1138
-1.16    -15.31   -0.1047
-1.26    -16.67   -0.1163
-1.37    -18.03   -0.1363
-1.47    -19.49   -0.1361
-1.58    -20.53   -0.1425
-1.68    -21.96   -0.1675
-1.79    -23.19   -0.1575
-1.89    -24.26   -0.1749
-2.00    -25.59   -0.1721
